ENLIGHTEN Version,2.2.7
Measurement ID,20211004-005336-877725-WP-00591
Serial Number,WP-00591
Model,WP-UV-VIS-C-S-25
Label,00:53:36 WP-00591
Declared Match,
Declared Score,0
Scan Averaging,1
Boxcar,0
Technique,Absorbance
Baseline Correction Algo,
ROI Pixel Start,0
ROI Pixel End,1023
Slit Width,25
Vignetted,False
Interpolated,False
Raman Intensity Corrected,False
Deconvolved,False
Integration Time,25
Timestamp,2021-10-04 00:53:36.877725
Note,Dark substracted
Temperature,-14.56424103398058
CCD C0,247.9385986328125
CCD C1,0.5131465792655945
CCD C2,-0.00012270470324438065
CCD C3,7.728250039917839e-08
CCD Offset,0
CCD Gain,1.9
Laser Wavelength,0.0
Laser Enable,False
Laser Power,100
Laser Temperature,0
Pixel Count,1024

Pixel,Wavelength,Processed,Raw,Dark,Reference
0,247.94,0.18046,856.00000,823.00000,50.00000
1,248.45,0.37675,844.00000,823.00000,50.00000
2,248.96,0.14424,856.00000,823.00000,46.00000
3,249.48,0.30103,850.00000,831.00000,38.00000
4,249.99,0.24667,846.00000,829.00000,30.00000
5,250.50,0.17609,856.00000,822.00000,51.00000
6,251.01,0.08130,856.00000,822.00000,41.00000
7,251.52,0.08842,856.00000,825.00000,38.00000
8,252.04,0.08715,859.00000,823.00000,44.00000
9,252.55,0.27470,848.00000,831.00000,32.00000
10,253.06,0.10390,859.00000,822.00000,47.00000
11,253.57,0.11394,863.00000,823.00000,52.00000
12,254.08,0.17070,854.00000,827.00000,40.00000
13,254.59,0.20888,859.00000,825.00000,55.00000
14,255.10,0.11070,856.00000,825.00000,40.00000
15,255.61,0.19457,850.00000,827.00000,36.00000
16,256.12,0.20926,852.00000,831.00000,34.00000
17,256.63,0.07741,859.00000,818.00000,49.00000
18,257.14,0.16537,861.00000,820.00000,60.00000
19,257.64,0.08715,863.00000,827.00000,44.00000
20,258.15,0.19781,848.00000,822.00000,41.00000
21,258.66,0.17140,858.00000,827.00000,46.00000
22,259.17,0.08842,858.00000,827.00000,38.00000
23,259.68,0.24988,854.00000,827.00000,48.00000
24,260.18,0.15297,861.00000,816.00000,64.00000
25,260.69,0.00000,869.00000,829.00000,32.00000
26,261.20,0.41144,841.00000,822.00000,49.00000
27,261.71,0.21806,850.00000,827.00000,38.00000
28,262.21,0.06695,861.00000,825.00000,42.00000
29,262.72,0.26152,852.00000,829.00000,42.00000
30,263.22,0.05931,863.00000,822.00000,47.00000
31,263.73,0.22531,858.00000,833.00000,42.00000
32,264.24,0.05799,863.00000,835.00000,32.00000
33,264.74,0.47712,848.00000,833.00000,45.00000
34,265.25,0.18564,859.00000,829.00000,46.00000
35,265.75,0.13263,867.00000,825.00000,57.00000
36,266.26,0.14842,858.00000,831.00000,38.00000
37,266.76,0.00000,865.00000,827.00000,36.00000
38,267.27,0.12494,863.00000,827.00000,48.00000
39,267.77,0.41144,848.00000,829.00000,49.00000
40,268.27,0.05931,863.00000,822.00000,47.00000
41,268.78,0.24551,856.00000,831.00000,44.00000
42,269.28,0.37161,852.00000,835.00000,40.00000
43,269.78,0.16749,859.00000,825.00000,50.00000
44,270.29,0.14309,861.00000,820.00000,57.00000
45,270.79,0.19280,859.00000,825.00000,53.00000
46,271.29,0.22185,858.00000,825.00000,55.00000
47,271.79,0.13389,865.00000,829.00000,49.00000
48,272.30,0.13189,858.00000,827.00000,42.00000
49,272.80,0.19189,858.00000,831.00000,42.00000
50,273.30,0.12494,858.00000,825.00000,44.00000
51,273.80,0.18406,859.00000,823.00000,55.00000
52,274.30,0.19728,867.00000,827.00000,63.00000
53,274.80,0.10763,869.00000,837.00000,41.00000
54,275.30,0.22440,859.00000,825.00000,57.00000
55,275.80,0.24598,856.00000,814.00000,74.00000
56,276.30,0.23937,852.00000,818.00000,59.00000
57,276.80,0.10646,861.00000,825.00000,46.00000
58,277.30,0.19957,861.00000,825.00000,57.00000
59,277.80,0.17609,861.00000,827.00000,51.00000
60,278.30,0.22440,854.00000,820.00000,57.00000
61,278.80,0.27621,854.00000,827.00000,51.00000
62,279.30,0.42882,848.00000,829.00000,51.00000
63,279.80,0.21560,859.00000,831.00000,46.00000
64,280.30,0.12832,871.00000,839.00000,43.00000
65,280.80,0.16797,858.00000,822.00000,53.00000
66,281.29,0.26188,858.00000,829.00000,53.00000
67,281.79,0.12222,869.00000,829.00000,53.00000
68,282.29,0.19107,865.00000,827.00000,59.00000
69,282.79,0.16633,867.00000,822.00000,66.00000
70,283.28,0.11764,863.00000,818.00000,59.00000
71,283.78,0.13622,861.00000,823.00000,52.00000
72,284.28,0.21671,856.00000,822.00000,56.00000
73,284.77,0.22440,859.00000,825.00000,57.00000
74,285.27,0.15127,865.00000,829.00000,51.00000
75,285.77,0.18406,863.00000,827.00000,55.00000
76,286.26,0.13753,865.00000,814.00000,70.00000
77,286.76,0.15970,861.00000,825.00000,52.00000
78,287.25,0.11580,869.00000,833.00000,47.00000
79,287.75,0.16058,869.00000,831.00000,55.00000
80,288.24,0.26977,863.00000,827.00000,67.00000
81,288.74,0.19107,869.00000,831.00000,59.00000
82,289.23,0.21307,863.00000,833.00000,49.00000
83,289.73,0.18406,861.00000,825.00000,55.00000
84,290.22,0.18406,863.00000,827.00000,55.00000
85,290.72,0.16481,863.00000,837.00000,38.00000
86,291.21,0.24304,865.00000,829.00000,63.00000
87,291.70,0.12887,869.00000,814.00000,74.00000
88,292.20,0.24304,854.00000,822.00000,56.00000
89,292.69,0.23736,856.00000,823.00000,57.00000
90,293.18,0.23045,863.00000,833.00000,51.00000
91,293.68,0.14062,867.00000,833.00000,47.00000
92,294.17,0.14722,871.00000,814.00000,80.00000
93,294.66,0.14449,869.00000,831.00000,53.00000
94,295.15,0.10646,865.00000,829.00000,46.00000
95,295.65,0.26570,861.00000,829.00000,59.00000
96,296.14,0.34090,859.00000,833.00000,57.00000
97,296.63,0.10409,873.00000,825.00000,61.00000
98,297.12,0.30629,859.00000,818.00000,83.00000
99,297.61,0.23313,863.00000,825.00000,65.00000
100,298.10,0.23313,863.00000,825.00000,65.00000
101,298.59,0.18505,867.00000,835.00000,49.00000
102,299.08,0.30737,861.00000,827.00000,69.00000
103,299.57,0.21560,865.00000,823.00000,69.00000
104,300.06,0.32585,863.00000,829.00000,72.00000
105,300.55,0.22760,865.00000,820.00000,76.00000
106,301.04,0.32369,859.00000,831.00000,59.00000
107,301.53,0.21956,865.00000,827.00000,63.00000
108,302.02,0.12124,877.00000,818.00000,78.00000
109,302.51,0.31362,863.00000,829.00000,70.00000
110,303.00,0.11007,877.00000,825.00000,67.00000
111,303.49,0.18327,867.00000,827.00000,61.00000
112,303.98,0.19957,869.00000,833.00000,57.00000
113,304.47,0.18184,875.00000,825.00000,76.00000
114,304.95,0.18452,865.00000,814.00000,78.00000
115,305.44,0.33995,861.00000,829.00000,70.00000
116,305.93,0.26717,865.00000,825.00000,74.00000
117,306.42,0.21956,865.00000,827.00000,63.00000
118,306.91,0.19540,869.00000,825.00000,69.00000
119,307.39,0.25302,863.00000,820.00000,77.00000
120,307.88,0.32585,859.00000,825.00000,72.00000
121,308.37,0.27174,871.00000,825.00000,86.00000
122,308.85,0.33817,863.00000,835.00000,61.00000
123,309.34,0.27755,867.00000,829.00000,72.00000
124,309.83,0.14133,877.00000,825.00000,72.00000
125,310.31,0.32906,863.00000,833.00000,64.00000
126,310.80,0.32906,869.00000,839.00000,64.00000
127,311.28,0.22888,871.00000,822.00000,83.00000
128,311.77,0.17609,875.00000,833.00000,63.00000
129,312.25,0.19457,873.00000,827.00000,72.00000
130,312.74,0.15261,873.00000,816.00000,81.00000
131,313.22,0.18327,875.00000,835.00000,61.00000
132,313.71,0.33775,863.00000,829.00000,74.00000
133,314.19,0.19957,871.00000,823.00000,76.00000
134,314.68,0.15261,877.00000,820.00000,81.00000
135,315.16,0.22185,869.00000,818.00000,85.00000
136,315.65,0.37566,861.00000,829.00000,76.00000
137,316.13,0.30103,871.00000,833.00000,76.00000
138,316.61,0.26885,869.00000,827.00000,78.00000
139,317.10,0.21085,871.00000,831.00000,65.00000
140,317.58,0.22934,873.00000,827.00000,78.00000
141,318.06,0.31231,863.00000,825.00000,78.00000
142,318.55,0.30103,871.00000,831.00000,80.00000
143,319.03,0.16166,878.00000,827.00000,74.00000
144,319.51,0.27676,875.00000,829.00000,87.00000
145,319.99,0.15654,878.00000,825.00000,76.00000
146,320.48,0.27729,869.00000,822.00000,89.00000
147,320.96,0.39280,861.00000,827.00000,84.00000
148,321.44,0.25527,867.00000,822.00000,81.00000
149,321.92,0.23553,873.00000,823.00000,86.00000
150,322.40,0.15173,878.00000,823.00000,78.00000
151,322.88,0.14613,875.00000,820.00000,77.00000
152,323.36,0.31125,865.00000,823.00000,86.00000
153,323.85,0.34933,861.00000,827.00000,76.00000
154,324.33,0.27036,867.00000,823.00000,82.00000
155,324.81,0.27036,871.00000,827.00000,82.00000
156,325.29,0.14483,873.00000,825.00000,67.00000
157,325.77,0.17930,878.00000,833.00000,68.00000
158,326.25,0.32585,863.00000,829.00000,72.00000
159,326.73,0.34426,863.00000,820.00000,95.00000
160,327.21,0.38694,865.00000,833.00000,78.00000
161,327.69,0.17324,878.00000,827.00000,76.00000
162,328.17,0.32222,865.00000,825.00000,84.00000
163,328.64,0.30103,869.00000,831.00000,76.00000
164,329.12,0.34450,865.00000,827.00000,84.00000
165,329.60,0.28663,877.00000,831.00000,89.00000
166,330.08,0.35751,867.00000,831.00000,82.00000
167,330.56,0.22000,865.00000,818.00000,78.00000
168,331.04,0.25326,873.00000,825.00000,86.00000
169,331.52,0.45593,859.00000,831.00000,80.00000
170,331.99,0.29105,871.00000,827.00000,86.00000
171,332.47,0.31293,869.00000,833.00000,74.00000
172,332.95,0.16749,873.00000,822.00000,75.00000
173,333.43,0.26695,875.00000,822.00000,98.00000
174,333.90,0.34679,869.00000,833.00000,80.00000
175,334.38,0.40866,863.00000,831.00000,82.00000
176,334.86,0.27015,878.00000,827.00000,95.00000
177,335.33,0.26885,869.00000,827.00000,78.00000
178,335.81,0.29208,869.00000,820.00000,96.00000
179,336.29,0.35447,867.00000,825.00000,95.00000
180,336.76,0.41791,863.00000,829.00000,89.00000
181,337.24,0.27470,873.00000,822.00000,96.00000
182,337.72,0.26666,877.00000,831.00000,85.00000
183,338.19,0.26324,873.00000,825.00000,88.00000
184,338.67,0.24033,871.00000,825.00000,80.00000
185,339.14,0.42427,863.00000,831.00000,85.00000
186,339.62,0.37161,863.00000,829.00000,80.00000
187,340.09,0.46584,863.00000,837.00000,76.00000
188,340.57,0.35008,869.00000,823.00000,103.00000
189,341.04,0.23824,877.00000,825.00000,90.00000
190,341.52,0.31079,869.00000,825.00000,90.00000
191,341.99,0.29276,871.00000,818.00000,104.00000
192,342.46,0.29628,875.00000,829.00000,91.00000
193,342.94,0.26152,873.00000,827.00000,84.00000
194,343.41,0.28366,873.00000,822.00000,98.00000
195,343.89,0.36653,865.00000,822.00000,100.00000
196,344.36,0.56255,852.00000,829.00000,84.00000
197,344.83,0.42756,865.00000,831.00000,91.00000
198,345.31,0.40369,869.00000,839.00000,76.00000
199,345.78,0.31840,869.00000,820.00000,102.00000
200,346.25,0.35218,875.00000,839.00000,81.00000
201,346.73,0.42597,863.00000,833.00000,80.00000
202,347.20,0.29148,871.00000,825.00000,90.00000
203,347.67,0.32308,875.00000,827.00000,101.00000
204,348.14,0.35218,867.00000,823.00000,99.00000
205,348.61,0.30519,877.00000,825.00000,105.00000
206,349.09,0.35698,873.00000,833.00000,91.00000
207,349.56,0.48812,859.00000,833.00000,80.00000
208,350.03,0.43537,865.00000,825.00000,109.00000
209,350.50,0.40274,861.00000,825.00000,91.00000
210,350.97,0.35120,867.00000,818.00000,110.00000
211,351.44,0.45653,859.00000,823.00000,103.00000
212,351.91,0.30103,873.00000,831.00000,84.00000
213,352.39,0.40226,869.00000,829.00000,101.00000
214,352.86,0.44624,867.00000,833.00000,95.00000
215,353.33,0.35619,871.00000,823.00000,109.00000
216,353.80,0.39794,871.00000,829.00000,105.00000
217,354.27,0.47308,863.00000,827.00000,107.00000
218,354.74,0.42427,869.00000,837.00000,85.00000
219,355.21,0.32222,875.00000,825.00000,105.00000
220,355.68,0.45484,865.00000,825.00000,114.00000
221,356.15,0.38818,867.00000,822.00000,110.00000
222,356.62,0.36663,873.00000,827.00000,107.00000
223,357.09,0.35843,869.00000,823.00000,105.00000
224,357.55,0.42142,863.00000,827.00000,95.00000
225,358.02,0.50268,858.00000,825.00000,105.00000
226,358.49,0.38535,867.00000,818.00000,119.00000
227,358.96,0.36352,871.00000,829.00000,97.00000
228,359.43,0.40699,873.00000,835.00000,97.00000
229,359.90,0.35698,873.00000,833.00000,91.00000
230,360.37,0.40804,867.00000,833.00000,87.00000
231,360.83,0.37566,871.00000,823.00000,114.00000
232,361.30,0.31338,877.00000,825.00000,107.00000
233,361.77,0.45079,873.00000,839.00000,96.00000
234,362.24,0.33041,877.00000,827.00000,107.00000
235,362.71,0.38870,871.00000,833.00000,93.00000
236,363.17,0.52543,859.00000,825.00000,114.00000
237,363.64,0.31338,877.00000,825.00000,107.00000
238,364.11,0.43933,867.00000,827.00000,110.00000
239,364.57,0.55630,859.00000,829.00000,108.00000
240,365.04,0.42454,865.00000,827.00000,101.00000
241,365.51,0.67778,858.00000,837.00000,100.00000
242,365.97,0.46161,867.00000,829.00000,110.00000
243,366.44,0.40170,871.00000,825.00000,116.00000
244,366.91,0.35948,875.00000,816.00000,135.00000
245,367.37,0.48555,867.00000,833.00000,104.00000
246,367.84,0.39064,871.00000,823.00000,118.00000
247,368.30,0.61033,865.00000,839.00000,106.00000
248,368.77,0.39064,877.00000,829.00000,118.00000
249,369.24,0.40671,865.00000,816.00000,125.00000
250,369.70,0.34074,878.00000,831.00000,103.00000
251,370.17,0.39794,873.00000,835.00000,95.00000
252,370.63,0.62554,858.00000,831.00000,114.00000
253,371.10,0.43366,871.00000,829.00000,114.00000
254,371.56,0.38349,869.00000,814.00000,133.00000
255,372.03,0.51364,867.00000,829.00000,124.00000
256,372.49,0.49210,863.00000,825.00000,118.00000
257,372.95,0.50585,861.00000,822.00000,125.00000
258,373.42,0.39415,875.00000,829.00000,114.00000
259,373.88,0.37742,877.00000,825.00000,124.00000
260,374.35,0.43761,869.00000,823.00000,126.00000
261,374.81,0.45692,871.00000,827.00000,126.00000
262,375.27,0.46982,871.00000,831.00000,118.00000
263,375.74,0.52543,865.00000,831.00000,114.00000
264,376.20,0.46109,871.00000,825.00000,133.00000
265,376.66,0.48667,865.00000,820.00000,138.00000
266,377.13,0.37742,875.00000,823.00000,124.00000
267,377.59,0.49292,867.00000,831.00000,112.00000
268,378.05,0.54770,861.00000,827.00000,120.00000
269,378.52,0.49136,865.00000,825.00000,124.00000
270,378.98,0.59885,859.00000,825.00000,135.00000
271,379.44,0.51558,867.00000,831.00000,118.00000
272,379.90,0.55429,871.00000,835.00000,129.00000
273,380.37,0.72818,856.00000,833.00000,123.00000
274,380.83,0.48734,869.00000,827.00000,129.00000
275,381.29,0.44105,875.00000,829.00000,127.00000
276,381.75,0.45451,875.00000,829.00000,131.00000
277,382.21,0.57232,867.00000,833.00000,127.00000
278,382.67,0.52402,871.00000,833.00000,127.00000
279,383.14,0.46406,867.00000,822.00000,131.00000
280,383.60,0.40886,878.00000,823.00000,141.00000
281,384.06,0.36798,878.00000,818.00000,140.00000
282,384.52,0.34749,884.00000,822.00000,138.00000
283,384.98,0.45451,869.00000,823.00000,131.00000
284,385.44,0.68318,861.00000,833.00000,135.00000
285,385.90,0.44968,871.00000,822.00000,138.00000
286,386.36,0.51347,867.00000,825.00000,137.00000
287,386.82,0.50708,869.00000,827.00000,135.00000
288,387.28,0.52827,875.00000,835.00000,135.00000
289,387.74,0.50577,867.00000,823.00000,141.00000
290,388.20,0.51012,875.00000,837.00000,123.00000
291,388.66,0.49327,873.00000,829.00000,137.00000
292,389.12,0.46177,873.00000,825.00000,139.00000
293,389.58,0.42990,880.00000,825.00000,148.00000
294,390.04,0.45637,873.00000,823.00000,143.00000
295,390.50,0.57978,865.00000,825.00000,152.00000
296,390.96,0.54716,867.00000,827.00000,141.00000
297,391.42,0.51705,880.00000,835.00000,148.00000
298,391.88,0.55284,869.00000,827.00000,150.00000
299,392.34,0.52476,871.00000,825.00000,154.00000
300,392.80,0.59106,869.00000,829.00000,156.00000
301,393.25,0.64235,865.00000,829.00000,158.00000
302,393.71,0.60805,869.00000,833.00000,146.00000
303,394.17,0.57024,873.00000,827.00000,171.00000
304,394.63,0.47712,882.00000,823.00000,177.00000
305,395.09,0.61423,869.00000,825.00000,181.00000
306,395.55,0.60940,867.00000,823.00000,179.00000
307,396.00,0.57644,875.00000,827.00000,181.00000
308,396.46,0.56128,873.00000,820.00000,193.00000
309,396.92,0.57561,873.00000,818.00000,207.00000
310,397.38,0.75119,867.00000,831.00000,203.00000
311,397.83,0.72341,875.00000,837.00000,201.00000
312,398.29,0.80043,863.00000,825.00000,240.00000
313,398.75,0.72964,878.00000,837.00000,220.00000
314,399.21,0.67461,873.00000,818.00000,260.00000
315,399.66,0.79903,869.00000,825.00000,277.00000
316,400.12,0.82012,871.00000,825.00000,304.00000
317,400.58,0.93924,865.00000,829.00000,313.00000
318,401.03,0.96484,875.00000,839.00000,332.00000
319,401.49,0.89395,873.00000,825.00000,376.00000
320,401.94,0.86217,877.00000,820.00000,415.00000
321,402.40,0.87946,882.00000,823.00000,447.00000
322,402.86,0.98174,873.00000,822.00000,489.00000
323,403.31,1.09108,873.00000,831.00000,518.00000
324,403.77,1.08740,877.00000,829.00000,587.00000
325,404.22,1.05637,871.00000,814.00000,649.00000
326,404.68,1.27391,865.00000,827.00000,714.00000
327,405.14,1.16523,877.00000,823.00000,790.00000
328,405.59,1.19740,880.00000,823.00000,898.00000
329,406.05,1.37976,871.00000,831.00000,959.00000
330,406.50,1.40735,869.00000,827.00000,1073.00000
331,406.96,1.36358,873.00000,822.00000,1178.00000
332,407.41,1.37691,880.00000,825.00000,1310.00000
333,407.87,1.60115,867.00000,831.00000,1437.00000
334,408.32,1.62515,863.00000,825.00000,1603.00000
335,408.78,1.54605,877.00000,827.00000,1758.00000
336,409.23,1.64902,871.00000,827.00000,1961.00000
337,409.68,1.59186,878.00000,822.00000,2188.00000
338,410.14,1.87361,865.00000,833.00000,2392.00000
339,410.59,1.79934,875.00000,833.00000,2646.00000
340,411.05,1.88782,871.00000,833.00000,2935.00000
341,411.50,1.93437,871.00000,833.00000,3267.00000
342,411.95,1.84366,875.00000,823.00000,3628.00000
343,412.41,1.93952,869.00000,823.00000,4002.00000
344,412.86,2.01303,863.00000,820.00000,4431.00000
345,413.32,1.96343,878.00000,825.00000,4872.00000
346,413.77,2.06714,873.00000,827.00000,5369.00000
347,414.22,2.12548,873.00000,829.00000,5874.00000
348,414.68,2.14512,869.00000,823.00000,6425.00000
349,415.13,2.18029,877.00000,831.00000,6967.00000
350,415.58,2.25435,873.00000,831.00000,7544.00000
351,416.03,2.16962,878.00000,823.00000,8128.00000
352,416.49,2.25803,877.00000,829.00000,8695.00000
353,416.94,2.26820,873.00000,823.00000,9272.00000
354,417.39,2.31224,873.00000,825.00000,9851.00000
355,417.84,2.29217,884.00000,831.00000,10386.00000
356,418.30,2.39218,877.00000,833.00000,10855.00000
357,418.75,2.52079,867.00000,833.00000,11279.00000
358,419.20,2.42347,875.00000,831.00000,11666.00000
359,419.65,2.37071,873.00000,822.00000,11975.00000
360,420.11,2.50683,865.00000,827.00000,12207.00000
361,420.56,2.34982,880.00000,825.00000,12308.00000
362,421.01,2.51353,873.00000,835.00000,12397.00000
363,421.46,2.45151,873.00000,829.00000,12444.00000
364,421.91,2.34432,878.00000,822.00000,12374.00000
365,422.36,2.44681,873.00000,829.00000,12310.00000
366,422.81,2.57860,859.00000,827.00000,12127.00000
367,423.27,2.41428,875.00000,829.00000,11941.00000
368,423.72,2.38471,875.00000,827.00000,11640.00000
369,424.17,2.31635,880.00000,825.00000,11395.00000
370,424.62,2.23848,884.00000,820.00000,11083.00000
371,425.07,2.39202,875.00000,831.00000,10851.00000
372,425.52,2.42374,871.00000,831.00000,10612.00000
373,425.97,2.41351,873.00000,833.00000,10365.00000
374,426.42,2.36031,871.00000,827.00000,10087.00000
375,426.87,2.28081,877.00000,825.00000,9927.00000
376,427.32,2.34724,873.00000,829.00000,9788.00000
377,427.77,2.38247,869.00000,829.00000,9650.00000
378,428.22,2.23941,877.00000,822.00000,9545.00000
379,428.67,2.20407,877.00000,818.00000,9439.00000
380,429.12,2.18000,882.00000,820.00000,9384.00000
381,429.57,2.24802,882.00000,829.00000,9382.00000
382,430.02,2.36768,873.00000,833.00000,9327.00000
383,430.47,2.30371,875.00000,829.00000,9257.00000
384,430.92,2.34313,869.00000,827.00000,9255.00000
385,431.37,2.30070,869.00000,823.00000,9193.00000
386,431.82,2.25711,878.00000,827.00000,9219.00000
387,432.27,2.32142,873.00000,829.00000,9223.00000
388,432.72,2.40274,859.00000,823.00000,9100.00000
389,433.17,2.37840,873.00000,835.00000,9082.00000
390,433.62,2.29471,869.00000,823.00000,9067.00000
391,434.06,2.27517,871.00000,823.00000,9045.00000
392,434.51,2.21475,882.00000,827.00000,9018.00000
393,434.96,2.35184,871.00000,831.00000,8993.00000
394,435.41,2.32974,873.00000,831.00000,8974.00000
395,435.86,2.24643,880.00000,829.00000,8995.00000
396,436.31,2.24624,880.00000,829.00000,8991.00000
397,436.76,2.27775,875.00000,827.00000,9099.00000
398,437.20,2.31372,875.00000,831.00000,9061.00000
399,437.65,2.28589,867.00000,820.00000,9078.00000
400,438.10,2.32076,877.00000,833.00000,9209.00000
401,438.55,2.32531,869.00000,825.00000,9306.00000
402,439.00,2.27596,875.00000,825.00000,9439.00000
403,439.44,2.37840,875.00000,835.00000,9560.00000
404,439.89,2.48046,865.00000,833.00000,9674.00000
405,440.34,2.36913,871.00000,829.00000,9826.00000
406,440.79,2.47038,863.00000,829.00000,10043.00000
407,441.23,2.26627,875.00000,820.00000,10154.00000
408,441.68,2.32432,871.00000,822.00000,10340.00000
409,442.13,2.42111,867.00000,827.00000,10548.00000
410,442.58,2.30709,880.00000,827.00000,10749.00000
411,443.02,2.23616,882.00000,818.00000,11024.00000
412,443.47,2.28668,880.00000,822.00000,11223.00000
413,443.92,2.27035,884.00000,823.00000,11368.00000
414,444.36,2.61584,861.00000,833.00000,11561.00000
415,444.81,2.51639,867.00000,831.00000,11822.00000
416,445.26,2.36401,877.00000,825.00000,12023.00000
417,445.70,2.38874,873.00000,823.00000,12238.00000
418,446.15,2.32467,884.00000,825.00000,12460.00000
419,446.60,2.57219,871.00000,837.00000,12696.00000
420,447.04,2.52952,867.00000,829.00000,12862.00000
421,447.49,2.43387,877.00000,829.00000,13035.00000
422,447.93,2.28954,880.00000,812.00000,13245.00000
423,448.38,2.40341,878.00000,825.00000,13418.00000
424,448.83,2.45322,877.00000,829.00000,13629.00000
425,449.27,2.58320,865.00000,829.00000,13788.00000
426,449.72,2.46215,877.00000,829.00000,13912.00000
427,450.16,2.48628,873.00000,827.00000,14094.00000
428,450.61,2.41373,877.00000,822.00000,14259.00000
429,451.05,2.41890,878.00000,823.00000,14430.00000
430,451.50,2.53836,877.00000,835.00000,14508.00000
431,451.95,2.44540,880.00000,827.00000,14780.00000
432,452.39,2.41740,880.00000,823.00000,14903.00000
433,452.84,2.47486,873.00000,823.00000,14922.00000
434,453.28,2.48792,880.00000,831.00000,15070.00000
435,453.73,2.55688,875.00000,833.00000,15140.00000
436,454.17,2.55917,875.00000,833.00000,15220.00000
437,454.62,2.52278,877.00000,831.00000,15330.00000
438,455.06,2.47430,875.00000,823.00000,15499.00000
439,455.51,2.40782,877.00000,816.00000,15601.00000
440,455.95,2.57265,873.00000,831.00000,15700.00000
441,456.39,2.45028,878.00000,822.00000,15793.00000
442,456.84,2.47471,880.00000,827.00000,15812.00000
443,457.28,2.54734,878.00000,833.00000,15869.00000
444,457.73,2.55996,873.00000,829.00000,15974.00000
445,458.17,2.50371,877.00000,827.00000,15947.00000
446,458.62,2.49696,878.00000,827.00000,16015.00000
447,459.06,2.48972,877.00000,825.00000,16059.00000
448,459.50,2.56170,873.00000,829.00000,16038.00000
449,459.95,2.50669,877.00000,827.00000,16057.00000
450,460.39,2.40116,880.00000,816.00000,16119.00000
451,460.84,2.67505,875.00000,841.00000,16089.00000
452,461.28,2.58463,867.00000,825.00000,16139.00000
453,461.72,2.60396,869.00000,829.00000,16070.00000
454,462.17,2.47626,877.00000,823.00000,16168.00000
455,462.61,2.45074,880.00000,823.00000,16092.00000
456,463.05,2.49723,878.00000,827.00000,16025.00000
457,463.50,2.53180,878.00000,831.00000,15992.00000
458,463.94,2.48052,884.00000,831.00000,16025.00000
459,464.38,2.56072,877.00000,833.00000,16002.00000
460,464.83,2.43109,888.00000,829.00000,15920.00000
461,465.27,2.43049,884.00000,825.00000,15898.00000
462,465.71,2.53905,875.00000,829.00000,15915.00000
463,466.16,2.55732,873.00000,829.00000,15877.00000
464,466.60,2.50931,880.00000,831.00000,15831.00000
465,467.04,2.48205,877.00000,825.00000,15778.00000
466,467.48,2.48880,882.00000,831.00000,15717.00000
467,467.93,2.41827,882.00000,822.00000,15719.00000
468,468.37,2.47135,875.00000,822.00000,15690.00000
469,468.81,2.43666,884.00000,827.00000,15579.00000
470,469.25,2.46592,880.00000,827.00000,15495.00000
471,469.70,2.37048,886.00000,820.00000,15489.00000
472,470.14,2.39586,884.00000,822.00000,15426.00000
473,470.58,2.46073,890.00000,837.00000,15311.00000
474,471.02,2.39984,886.00000,825.00000,15317.00000
475,471.46,2.44373,880.00000,825.00000,15279.00000
476,471.91,2.45828,884.00000,831.00000,15225.00000
477,472.35,2.39546,886.00000,825.00000,15163.00000
478,472.79,2.39485,888.00000,827.00000,15142.00000
479,473.23,2.45231,880.00000,827.00000,15017.00000
480,473.67,2.43576,877.00000,822.00000,15001.00000
481,474.12,2.44943,886.00000,833.00000,14918.00000
482,474.56,2.44833,880.00000,827.00000,14880.00000
483,475.00,2.28962,888.00000,812.00000,14806.00000
484,475.44,2.44375,882.00000,829.00000,14724.00000
485,475.88,2.56682,871.00000,831.00000,14753.00000
486,476.32,2.42550,880.00000,825.00000,14651.00000
487,476.76,2.47620,880.00000,831.00000,14669.00000
488,477.21,2.41673,878.00000,822.00000,14619.00000
489,477.65,2.33050,888.00000,820.00000,14555.00000
490,478.09,2.43751,880.00000,827.00000,14514.00000
491,478.53,2.41896,884.00000,829.00000,14432.00000
492,478.97,2.37562,884.00000,823.00000,14486.00000
493,479.41,2.43357,882.00000,829.00000,14383.00000
494,479.85,2.35158,884.00000,820.00000,14380.00000
495,480.29,2.43155,878.00000,825.00000,14316.00000
496,480.73,2.41418,875.00000,820.00000,14274.00000
497,481.17,2.47135,877.00000,829.00000,14210.00000
498,481.61,2.47013,877.00000,829.00000,14170.00000
499,482.05,2.33118,886.00000,820.00000,14149.00000
500,482.49,2.31006,896.00000,827.00000,14090.00000
501,482.94,2.42247,884.00000,831.00000,14020.00000
502,483.38,2.40611,882.00000,827.00000,14011.00000
503,483.82,2.37509,886.00000,827.00000,13994.00000
504,484.26,2.39171,886.00000,829.00000,14047.00000
505,484.70,2.31269,884.00000,816.00000,13970.00000
506,485.14,2.42111,884.00000,831.00000,13976.00000
507,485.58,2.40421,878.00000,823.00000,13950.00000
508,486.02,2.37157,888.00000,829.00000,13881.00000
509,486.46,2.31791,892.00000,825.00000,13931.00000
510,486.90,2.28640,892.00000,820.00000,13923.00000
511,487.34,2.29588,890.00000,820.00000,13835.00000
512,487.78,2.38711,880.00000,823.00000,13899.00000
513,488.21,2.38573,886.00000,829.00000,13855.00000
514,488.65,2.41964,880.00000,827.00000,13929.00000
515,489.09,2.34352,888.00000,825.00000,13895.00000
516,489.53,2.29126,896.00000,825.00000,13884.00000
517,489.97,2.38969,888.00000,831.00000,13982.00000
518,490.41,2.43707,878.00000,827.00000,13952.00000
519,490.85,2.44703,892.00000,842.00000,13996.00000
520,491.29,2.33315,890.00000,825.00000,13998.00000
521,491.73,2.27733,896.00000,822.00000,14014.00000
522,492.17,2.36358,890.00000,829.00000,14090.00000
523,492.61,2.44066,880.00000,829.00000,14068.00000
524,493.05,2.35117,888.00000,825.00000,14142.00000
525,493.49,2.27560,897.00000,822.00000,14147.00000
526,493.93,2.31999,890.00000,822.00000,14207.00000
527,494.36,2.35460,890.00000,827.00000,14254.00000
528,494.80,2.38549,888.00000,829.00000,14333.00000
529,495.24,2.38700,882.00000,823.00000,14383.00000
530,495.68,2.35486,884.00000,820.00000,14489.00000
531,496.12,2.36119,888.00000,825.00000,14472.00000
532,496.56,2.39177,888.00000,829.00000,14542.00000
533,497.00,2.36534,888.00000,825.00000,14611.00000
534,497.43,2.36531,894.00000,831.00000,14610.00000
535,497.87,2.42710,884.00000,829.00000,14705.00000
536,498.31,2.32434,897.00000,827.00000,14772.00000
537,498.75,2.35785,896.00000,831.00000,14817.00000
538,499.19,2.48389,880.00000,831.00000,14931.00000
539,499.63,2.37695,890.00000,827.00000,15007.00000
540,500.06,2.37066,886.00000,822.00000,15026.00000
541,500.50,2.29854,890.00000,814.00000,15113.00000
542,500.94,2.41059,890.00000,831.00000,15186.00000
543,501.38,2.35623,894.00000,827.00000,15216.00000
544,501.82,2.35856,892.00000,825.00000,15298.00000
545,502.25,2.52230,877.00000,831.00000,15313.00000
546,502.69,2.30021,897.00000,820.00000,15371.00000
547,503.13,2.34867,896.00000,827.00000,15400.00000
548,503.57,2.44741,892.00000,837.00000,15409.00000
549,504.01,2.37770,894.00000,829.00000,15510.00000
550,504.44,2.40676,894.00000,833.00000,15563.00000
551,504.88,2.31256,903.00000,827.00000,15609.00000
552,505.32,2.33197,896.00000,823.00000,15678.00000
553,505.76,2.39013,901.00000,837.00000,15715.00000
554,506.19,2.45595,884.00000,829.00000,15715.00000
555,506.63,2.39830,896.00000,833.00000,15763.00000
556,507.07,2.34921,896.00000,825.00000,15866.00000
557,507.51,2.39497,884.00000,820.00000,15891.00000
558,507.94,2.27179,907.00000,822.00000,15893.00000
559,508.38,2.34488,899.00000,827.00000,15930.00000
560,508.82,2.35281,896.00000,825.00000,15998.00000
561,509.25,2.37723,894.00000,827.00000,15970.00000
562,509.69,2.36024,890.00000,820.00000,16045.00000
563,510.13,2.38674,899.00000,833.00000,16080.00000
564,510.57,2.42193,890.00000,829.00000,16116.00000
565,511.00,2.38363,896.00000,829.00000,16207.00000
566,511.44,2.35151,897.00000,825.00000,16175.00000
567,511.88,2.39858,890.00000,825.00000,16274.00000
568,512.31,2.34399,896.00000,822.00000,16339.00000
569,512.75,2.35597,905.00000,833.00000,16342.00000
570,513.19,2.30846,905.00000,825.00000,16276.00000
571,513.62,2.40529,897.00000,833.00000,16273.00000
572,514.06,2.37249,896.00000,827.00000,16268.00000
573,514.50,2.32124,894.00000,816.00000,16343.00000
574,514.93,2.38305,901.00000,833.00000,16427.00000
575,515.37,2.38779,894.00000,827.00000,16363.00000
576,515.81,2.42877,894.00000,833.00000,16372.00000
577,516.24,2.41165,897.00000,833.00000,16513.00000
578,516.68,2.33514,905.00000,829.00000,16442.00000
579,517.12,2.34765,899.00000,825.00000,16477.00000
580,517.55,2.39925,901.00000,835.00000,16550.00000
581,517.99,2.35918,909.00000,837.00000,16463.00000
582,518.42,2.43389,896.00000,835.00000,16566.00000
583,518.86,2.40491,896.00000,831.00000,16513.00000
584,519.30,2.28720,903.00000,818.00000,16467.00000
585,519.73,2.35038,903.00000,829.00000,16581.00000
586,520.17,2.27818,907.00000,820.00000,16508.00000
587,520.60,2.36199,901.00000,829.00000,16570.00000
588,521.04,2.36306,901.00000,829.00000,16611.00000
589,521.48,2.29677,911.00000,827.00000,16636.00000
590,521.91,2.33979,905.00000,829.00000,16619.00000
591,522.35,2.32812,903.00000,825.00000,16604.00000
592,522.78,2.30784,907.00000,825.00000,16659.00000
593,523.22,2.41508,897.00000,833.00000,16644.00000
594,523.66,2.28791,911.00000,825.00000,16688.00000
595,524.09,2.32059,909.00000,829.00000,16737.00000
596,524.53,2.30007,915.00000,831.00000,16763.00000
597,524.96,2.31237,911.00000,829.00000,16834.00000
598,525.40,2.40852,901.00000,835.00000,16907.00000
599,525.83,2.29251,913.00000,827.00000,16866.00000
600,526.27,2.30930,903.00000,820.00000,16919.00000
601,526.71,2.34635,901.00000,825.00000,16872.00000
602,527.14,2.28405,913.00000,825.00000,16925.00000
603,527.58,2.33769,905.00000,827.00000,16974.00000
604,528.01,2.43783,897.00000,835.00000,16991.00000
605,528.45,2.32772,911.00000,831.00000,17014.00000
606,528.88,2.31834,907.00000,825.00000,17067.00000
607,529.32,2.31298,905.00000,822.00000,17063.00000
608,529.75,2.31908,911.00000,829.00000,17096.00000
609,530.19,2.30297,905.00000,820.00000,17076.00000
610,530.62,2.30938,915.00000,831.00000,17126.00000
611,531.06,2.26464,916.00000,823.00000,17105.00000
612,531.49,2.26472,915.00000,822.00000,17108.00000
613,531.93,2.26459,920.00000,827.00000,17103.00000
614,532.36,2.25626,913.00000,818.00000,17139.00000
615,532.80,2.34414,911.00000,833.00000,17228.00000
616,533.23,2.29745,918.00000,831.00000,17257.00000
617,533.67,2.25381,916.00000,820.00000,17222.00000
618,534.10,2.28446,913.00000,823.00000,17326.00000
619,534.54,2.29058,918.00000,829.00000,17377.00000
620,534.97,2.38149,905.00000,833.00000,17331.00000
621,535.41,2.26095,922.00000,827.00000,17325.00000
622,535.84,2.32591,915.00000,833.00000,17367.00000
623,536.28,2.27281,920.00000,827.00000,17430.00000
624,536.71,2.25268,920.00000,822.00000,17535.00000
625,537.15,2.27629,915.00000,822.00000,17570.00000
626,537.58,2.27341,924.00000,831.00000,17454.00000
627,538.02,2.23941,928.00000,827.00000,17528.00000
628,538.45,2.19070,935.00000,822.00000,17530.00000
629,538.89,2.16542,945.00000,825.00000,17563.00000
630,539.32,2.18797,939.00000,825.00000,17574.00000
631,539.75,2.18876,941.00000,827.00000,17606.00000
632,540.19,2.21386,945.00000,837.00000,17672.00000
633,540.62,2.14481,954.00000,827.00000,17726.00000
634,541.06,2.13802,956.00000,827.00000,17726.00000
635,541.49,2.16235,951.00000,829.00000,17730.00000
636,541.93,2.07813,973.00000,825.00000,17717.00000
637,542.36,2.08509,977.00000,831.00000,17760.00000
638,542.80,2.01553,994.00000,822.00000,17826.00000
639,543.23,2.01327,994.00000,820.00000,17940.00000
640,543.66,1.99060,1008.00000,825.00000,17908.00000
641,544.10,1.98215,1009.00000,822.00000,17947.00000
642,544.53,1.93676,1036.00000,829.00000,17895.00000
643,544.97,1.90133,1051.00000,825.00000,18007.00000
644,545.40,1.86306,1065.00000,818.00000,18020.00000
645,545.84,1.84344,1091.00000,833.00000,17991.00000
646,546.27,1.83203,1095.00000,829.00000,18068.00000
647,546.70,1.76367,1137.00000,825.00000,18106.00000
648,547.14,1.72194,1173.00000,829.00000,18134.00000
649,547.57,1.69242,1192.00000,823.00000,18174.00000
650,548.01,1.64724,1226.00000,816.00000,18198.00000
651,548.44,1.63160,1252.00000,829.00000,18111.00000
652,548.87,1.56723,1317.00000,822.00000,18274.00000
653,549.31,1.55592,1342.00000,835.00000,18236.00000
654,549.74,1.50953,1395.00000,831.00000,18231.00000
655,550.17,1.45826,1463.00000,827.00000,18269.00000
656,550.61,1.41630,1522.00000,818.00000,18360.00000
657,551.04,1.38161,1585.00000,822.00000,18371.00000
658,551.48,1.34539,1657.00000,829.00000,18341.00000
659,551.91,1.30608,1744.00000,837.00000,18352.00000
660,552.34,1.26056,1831.00000,816.00000,18494.00000
661,552.78,1.22562,1923.00000,827.00000,18426.00000
662,553.21,1.19310,2012.00000,827.00000,18485.00000
663,553.65,1.15134,2128.00000,827.00000,18434.00000
664,554.08,1.11401,2255.00000,831.00000,18515.00000
665,554.51,1.07930,2365.00000,825.00000,18485.00000
666,554.95,1.04489,2500.00000,827.00000,18552.00000
667,555.38,1.00833,2640.00000,823.00000,18522.00000
668,555.81,0.97862,2771.00000,829.00000,18487.00000
669,556.25,0.94810,2931.00000,835.00000,18599.00000
670,556.68,0.90866,3132.00000,829.00000,18662.00000
671,557.11,0.87570,3301.00000,820.00000,18635.00000
672,557.55,0.84774,3472.00000,827.00000,18628.00000
673,557.98,0.81488,3671.00000,823.00000,18596.00000
674,558.41,0.78399,3891.00000,825.00000,18645.00000
675,558.85,0.75947,4068.00000,837.00000,18570.00000
676,559.28,0.72997,4313.00000,831.00000,18698.00000
677,559.71,0.70125,4558.00000,827.00000,18753.00000
678,560.15,0.67658,4770.00000,825.00000,18734.00000
679,560.58,0.65309,5004.00000,827.00000,18791.00000
680,561.01,0.62101,5302.00000,829.00000,18690.00000
681,561.45,0.59474,5581.00000,827.00000,18698.00000
682,561.88,0.57250,5841.00000,825.00000,18744.00000
683,562.31,0.55076,6131.00000,831.00000,18838.00000
684,562.75,0.52901,6407.00000,833.00000,18844.00000
685,563.18,0.50362,6743.00000,831.00000,18852.00000
686,563.61,0.48441,7012.00000,827.00000,18869.00000
687,564.05,0.46173,7346.00000,818.00000,18902.00000
688,564.48,0.44128,7646.00000,825.00000,18842.00000
689,564.91,0.42313,7963.00000,823.00000,18916.00000
690,565.35,0.40606,8254.00000,823.00000,18928.00000
691,565.78,0.38550,8628.00000,820.00000,18969.00000
692,566.21,0.36661,8977.00000,820.00000,18973.00000
693,566.65,0.35018,9304.00000,829.00000,18981.00000
694,567.08,0.33352,9653.00000,829.00000,19019.00000
695,567.51,0.31746,9961.00000,831.00000,18964.00000
696,567.95,0.30475,10247.00000,827.00000,19002.00000
697,568.38,0.29252,10540.00000,823.00000,19057.00000
698,568.81,0.27483,10980.00000,825.00000,19121.00000
699,569.24,0.26261,11320.00000,825.00000,19213.00000
700,569.68,0.24837,11664.00000,827.00000,19199.00000
701,570.11,0.23591,11943.00000,822.00000,19145.00000
702,570.54,0.22476,12244.00000,823.00000,19163.00000
703,570.98,0.21410,12554.00000,818.00000,19214.00000
704,571.41,0.20301,12894.00000,820.00000,19269.00000
705,571.84,0.19181,13237.00000,829.00000,19298.00000
706,572.28,0.18235,13537.00000,825.00000,19345.00000
707,572.71,0.17388,13801.00000,831.00000,19356.00000
708,573.14,0.16510,14067.00000,831.00000,19358.00000
709,573.57,0.15734,14304.00000,825.00000,19364.00000
710,574.01,0.14747,14638.00000,823.00000,19401.00000
711,574.44,0.14091,14933.00000,829.00000,19510.00000
712,574.87,0.13311,15187.00000,822.00000,19517.00000
713,575.31,0.12737,15417.00000,829.00000,19560.00000
714,575.74,0.12066,15664.00000,823.00000,19594.00000
715,576.17,0.11205,15946.00000,827.00000,19569.00000
716,576.60,0.10654,16144.00000,829.00000,19573.00000
717,577.04,0.10050,16394.00000,820.00000,19629.00000
718,577.47,0.09780,16594.00000,831.00000,19744.00000
719,577.90,0.09084,16825.00000,831.00000,19715.00000
720,578.33,0.08621,17099.00000,827.00000,19845.00000
721,578.77,0.08073,17292.00000,825.00000,19831.00000
722,579.20,0.07657,17497.00000,827.00000,19884.00000
723,579.63,0.07127,17666.00000,833.00000,19835.00000
724,580.07,0.06796,17824.00000,833.00000,19869.00000
725,580.50,0.06347,18095.00000,829.00000,19983.00000
726,580.93,0.05959,18318.00000,829.00000,20061.00000
727,581.36,0.05571,18486.00000,825.00000,20078.00000
728,581.80,0.05467,18617.00000,823.00000,20181.00000
729,582.23,0.05191,18718.00000,831.00000,20158.00000
730,582.66,0.04709,18959.00000,825.00000,20211.00000
731,583.09,0.04578,19047.00000,814.00000,20260.00000
732,583.53,0.04095,19244.00000,827.00000,20238.00000
733,583.96,0.04059,19371.00000,825.00000,20363.00000
734,584.39,0.03764,19527.00000,829.00000,20391.00000
735,584.82,0.03659,19586.00000,827.00000,20408.00000
736,585.26,0.03261,19844.00000,827.00000,20500.00000
737,585.69,0.03244,19901.00000,829.00000,20551.00000
738,586.12,0.03043,20047.00000,827.00000,20615.00000
739,586.55,0.02808,20244.00000,823.00000,20718.00000
740,586.99,0.02612,20322.00000,833.00000,20697.00000
741,587.42,0.02304,20527.00000,829.00000,20771.00000
742,587.85,0.02427,20567.00000,816.00000,20886.00000
743,588.28,0.02219,20626.00000,823.00000,20841.00000
744,588.72,0.02055,20785.00000,827.00000,20925.00000
745,589.15,0.01967,20856.00000,831.00000,20953.00000
746,589.58,0.02123,20949.00000,829.00000,21128.00000
747,590.01,0.01572,21180.00000,833.00000,21097.00000
748,590.45,0.01583,21264.00000,820.00000,21203.00000
749,590.88,0.01467,21321.00000,831.00000,21194.00000
750,591.31,0.01401,21395.00000,831.00000,21238.00000
751,591.74,0.01155,21606.00000,827.00000,21339.00000
752,592.18,0.01111,21640.00000,831.00000,21348.00000
753,592.61,0.00995,21792.00000,827.00000,21451.00000
754,593.04,0.00904,21873.00000,823.00000,21493.00000
755,593.47,0.00927,21966.00000,827.00000,21595.00000
756,593.91,0.00722,22006.00000,827.00000,21534.00000
757,594.34,0.00944,22086.00000,825.00000,21728.00000
758,594.77,0.00680,22257.00000,831.00000,21764.00000
759,595.20,0.00529,22361.00000,816.00000,21809.00000
760,595.64,0.00718,22471.00000,823.00000,22009.00000
761,596.07,0.00611,22545.00000,822.00000,22031.00000
762,596.50,0.00284,22781.00000,825.00000,22100.00000
763,596.93,0.00566,22695.00000,833.00000,22149.00000
764,597.37,0.00536,22735.00000,820.00000,22187.00000
765,597.80,0.00453,22876.00000,825.00000,22282.00000
766,598.23,0.00255,23039.00000,829.00000,22341.00000
767,598.66,0.00198,23138.00000,829.00000,22411.00000
768,599.10,0.00204,23185.00000,839.00000,22451.00000
769,599.53,0.00135,23278.00000,835.00000,22513.00000
770,599.96,0.00127,23400.00000,820.00000,22646.00000
771,600.39,0.00222,23417.00000,818.00000,22715.00000
772,600.83,0.00222,23491.00000,820.00000,22787.00000
773,601.26,0.00290,23523.00000,825.00000,22850.00000
774,601.69,0.00097,23662.00000,825.00000,22888.00000
775,602.12,0.00044,23694.00000,816.00000,22901.00000
776,602.55,0.00000,23715.00000,829.00000,22882.00000
777,602.99,0.00000,23889.00000,831.00000,22950.00000
778,603.42,0.00000,23874.00000,837.00000,22967.00000
779,603.85,0.00000,24062.00000,829.00000,23231.00000
780,604.28,0.00069,24113.00000,823.00000,23327.00000
781,604.72,0.00046,24170.00000,831.00000,23364.00000
782,605.15,0.00000,24279.00000,825.00000,23393.00000
783,605.58,0.00000,24315.00000,827.00000,23461.00000
784,606.01,0.00000,24430.00000,829.00000,23579.00000
785,606.45,0.00044,24465.00000,825.00000,23664.00000
786,606.88,0.00000,24626.00000,829.00000,23727.00000
787,607.31,0.00000,24681.00000,818.00000,23743.00000
788,607.74,0.00000,24719.00000,823.00000,23756.00000
789,608.18,0.00000,24810.00000,833.00000,23859.00000
790,608.61,0.00000,24801.00000,837.00000,23922.00000
791,609.04,0.00000,24983.00000,831.00000,23928.00000
792,609.47,0.00000,24992.00000,823.00000,24057.00000
793,609.91,0.00000,25074.00000,825.00000,24067.00000
794,610.34,0.00000,25218.00000,825.00000,24147.00000
795,610.77,0.00000,25308.00000,823.00000,24268.00000
796,611.20,0.00000,25266.00000,823.00000,24232.00000
797,611.63,0.00000,25321.00000,829.00000,24349.00000
798,612.07,0.00256,25309.00000,822.00000,24343.00000
799,612.50,0.00427,25465.00000,816.00000,24408.00000
800,612.93,0.00325,25528.00000,818.00000,24526.00000
801,613.36,0.00372,25596.00000,829.00000,24556.00000
802,613.80,0.00301,25602.00000,829.00000,24602.00000
803,614.23,0.00481,25680.00000,823.00000,24583.00000
804,614.66,0.00319,25674.00000,831.00000,24661.00000
805,615.09,0.00384,25828.00000,827.00000,24781.00000
806,615.53,0.00390,25862.00000,829.00000,24809.00000
807,615.96,0.00360,25890.00000,833.00000,24850.00000
808,616.39,0.00431,25964.00000,825.00000,24891.00000
809,616.82,0.00494,26016.00000,827.00000,24904.00000
810,617.26,0.00533,26141.00000,822.00000,25010.00000
811,617.69,0.00441,26169.00000,829.00000,25084.00000
812,618.12,0.00475,26281.00000,829.00000,25175.00000
813,618.55,0.00408,26295.00000,825.00000,25232.00000
814,618.99,0.00524,26431.00000,831.00000,25293.00000
815,619.42,0.00524,26431.00000,823.00000,25301.00000
816,619.85,0.00434,26367.00000,825.00000,25288.00000
817,620.28,0.00449,26481.00000,829.00000,25388.00000
818,620.72,0.00466,26619.00000,831.00000,25513.00000
819,621.15,0.00395,26583.00000,827.00000,25523.00000
820,621.58,0.00406,26714.00000,825.00000,25648.00000
821,622.01,0.00615,26851.00000,829.00000,25656.00000
822,622.45,0.00387,26828.00000,816.00000,25781.00000
823,622.88,0.00586,26891.00000,833.00000,25709.00000
824,623.31,0.00326,26942.00000,829.00000,25918.00000
825,623.74,0.00471,27035.00000,825.00000,25927.00000
826,624.18,0.00490,27191.00000,823.00000,26072.00000
827,624.61,0.00336,27204.00000,825.00000,26176.00000
828,625.04,0.00418,27263.00000,822.00000,26188.00000
829,625.47,0.00547,27267.00000,831.00000,26105.00000
830,625.91,0.00295,27246.00000,831.00000,26236.00000
831,626.34,0.00510,27377.00000,835.00000,26232.00000
832,626.77,0.00603,27352.00000,820.00000,26166.00000
833,627.20,0.00475,27498.00000,820.00000,26388.00000
834,627.64,0.00430,27419.00000,827.00000,26330.00000
835,628.07,0.00680,27483.00000,823.00000,26246.00000
836,628.50,0.00602,27430.00000,825.00000,26239.00000
837,628.93,0.00556,27557.00000,831.00000,26386.00000
838,629.37,0.00472,27618.00000,812.00000,26516.00000
839,629.80,0.00709,27675.00000,829.00000,26411.00000
840,630.23,0.00528,27586.00000,833.00000,26430.00000
841,630.66,0.00404,27629.00000,825.00000,26556.00000
842,631.10,0.00526,27726.00000,829.00000,26573.00000
843,631.53,0.00491,27705.00000,833.00000,26570.00000
844,631.96,0.00713,27772.00000,829.00000,26504.00000
845,632.39,0.00748,27806.00000,825.00000,26520.00000
846,632.83,0.00494,27715.00000,833.00000,26578.00000
847,633.26,0.00634,27806.00000,831.00000,26584.00000
848,633.69,0.00651,27728.00000,827.00000,26501.00000
849,634.13,0.00729,27749.00000,829.00000,26472.00000
850,634.56,0.00621,27597.00000,822.00000,26395.00000
851,634.99,0.00635,27506.00000,827.00000,26292.00000
852,635.42,0.00662,27542.00000,837.00000,26301.00000
853,635.86,0.00774,27388.00000,829.00000,26090.00000
854,636.29,0.00545,27293.00000,829.00000,26134.00000
855,636.72,0.00822,27339.00000,822.00000,26020.00000
856,637.15,0.00788,27248.00000,825.00000,25948.00000
857,637.59,0.00569,27085.00000,833.00000,25910.00000
858,638.02,0.00630,27094.00000,829.00000,25887.00000
859,638.45,0.00695,27086.00000,833.00000,25836.00000
860,638.89,0.00398,27018.00000,827.00000,25952.00000
861,639.32,0.00597,26971.00000,825.00000,25789.00000
862,639.75,0.00707,27031.00000,829.00000,25779.00000
863,640.18,0.00600,26984.00000,831.00000,25794.00000
864,640.62,0.00633,26993.00000,820.00000,25794.00000
865,641.05,0.00537,27033.00000,816.00000,25895.00000
866,641.48,0.00482,26938.00000,823.00000,25827.00000
867,641.92,0.00787,26991.00000,827.00000,25694.00000
868,642.35,0.00624,26891.00000,825.00000,25694.00000
869,642.78,0.00513,26868.00000,827.00000,25735.00000
870,643.21,0.00667,26857.00000,823.00000,25637.00000
871,643.65,0.00572,26817.00000,829.00000,25648.00000
872,644.08,0.00652,26798.00000,837.00000,25574.00000
873,644.51,0.00693,26853.00000,827.00000,25614.00000
874,644.95,0.00487,26843.00000,833.00000,25720.00000
875,645.38,0.00694,26916.00000,816.00000,25686.00000
876,645.81,0.00648,26957.00000,829.00000,25741.00000
877,646.25,0.00484,26925.00000,835.00000,25801.00000
878,646.68,0.00702,27024.00000,829.00000,25775.00000
879,647.11,0.00606,27094.00000,835.00000,25895.00000
880,647.54,0.00743,27130.00000,831.00000,25853.00000
881,647.98,0.00779,27197.00000,823.00000,25905.00000
882,648.41,0.00656,27122.00000,827.00000,25901.00000
883,648.84,0.00549,27103.00000,822.00000,25951.00000
884,649.28,0.00668,27187.00000,835.00000,25950.00000
885,649.71,0.00655,27202.00000,831.00000,25976.00000
886,650.14,0.00608,27130.00000,818.00000,25946.00000
887,650.58,0.00778,27312.00000,829.00000,26013.00000
888,651.01,0.00753,27297.00000,827.00000,26015.00000
889,651.44,0.00609,27274.00000,827.00000,26079.00000
890,651.88,0.00623,27248.00000,831.00000,26041.00000
891,652.31,0.00857,27286.00000,825.00000,25944.00000
892,652.74,0.00649,27172.00000,829.00000,25952.00000
893,653.18,0.00765,27107.00000,835.00000,25813.00000
894,653.61,0.00647,27010.00000,829.00000,25794.00000
895,654.04,0.00720,26923.00000,829.00000,25665.00000
896,654.47,0.00740,26868.00000,822.00000,25606.00000
897,654.91,0.00773,26781.00000,822.00000,25501.00000
898,655.34,0.00733,26682.00000,820.00000,25429.00000
899,655.77,0.00766,26785.00000,823.00000,25508.00000
900,656.21,0.00710,26777.00000,829.00000,25527.00000
901,656.64,0.00640,26815.00000,827.00000,25608.00000
902,657.08,0.00572,26819.00000,816.00000,25663.00000
903,657.51,0.00623,26931.00000,827.00000,25732.00000
904,657.94,0.00708,27010.00000,837.00000,25750.00000
905,658.38,0.00534,27010.00000,831.00000,25859.00000
906,658.81,0.00632,27067.00000,827.00000,25861.00000
907,659.24,0.00721,27128.00000,827.00000,25868.00000
908,659.68,0.00765,27157.00000,820.00000,25877.00000
909,660.11,0.00706,27003.00000,833.00000,25748.00000
910,660.54,0.00716,26957.00000,827.00000,25703.00000
911,660.98,0.00910,26834.00000,833.00000,25462.00000
912,661.41,0.00835,26731.00000,827.00000,25411.00000
913,661.84,0.00971,26545.00000,820.00000,25156.00000
914,662.28,0.01015,26454.00000,827.00000,25035.00000
915,662.71,0.00809,26143.00000,827.00000,24849.00000
916,663.14,0.00730,25917.00000,825.00000,24674.00000
917,663.58,0.00924,25718.00000,827.00000,24367.00000
918,664.01,0.00822,25477.00000,831.00000,24184.00000
919,664.45,0.00826,25283.00000,820.00000,24002.00000
920,664.88,0.00646,25019.00000,823.00000,23839.00000
921,665.31,0.00746,24884.00000,816.00000,23658.00000
922,665.75,0.00898,24664.00000,831.00000,23345.00000
923,666.18,0.00955,24552.00000,827.00000,23209.00000
924,666.61,0.00786,24256.00000,825.00000,23011.00000
925,667.05,0.00950,24157.00000,822.00000,22830.00000
926,667.48,0.00839,23863.00000,823.00000,22599.00000
927,667.92,0.00683,23574.00000,827.00000,22392.00000
928,668.35,0.00893,23438.00000,829.00000,22149.00000
929,668.78,0.00729,23100.00000,816.00000,21913.00000
930,669.22,0.00941,22914.00000,835.00000,21606.00000
931,669.65,0.00858,22663.00000,829.00000,21407.00000
932,670.08,0.01025,22399.00000,825.00000,21071.00000
933,670.52,0.00961,22164.00000,833.00000,20864.00000
934,670.95,0.00996,21917.00000,831.00000,20608.00000
935,671.39,0.00945,21632.00000,827.00000,20357.00000
936,671.82,0.00963,21448.00000,837.00000,20159.00000
937,672.25,0.00847,21190.00000,833.00000,19964.00000
938,672.69,0.00963,21027.00000,823.00000,19761.00000
939,673.12,0.00811,20812.00000,823.00000,19619.00000
940,673.56,0.00874,20558.00000,822.00000,19343.00000
941,673.99,0.00733,20366.00000,827.00000,19212.00000
942,674.43,0.00937,20265.00000,825.00000,19025.00000
943,674.86,0.00776,20024.00000,831.00000,18853.00000
944,675.29,0.00921,19889.00000,831.00000,18658.00000
945,675.73,0.00904,19715.00000,831.00000,18495.00000
946,676.16,0.01001,19561.00000,825.00000,18309.00000
947,676.60,0.00877,19286.00000,823.00000,18094.00000
948,677.03,0.00970,19159.00000,823.00000,17931.00000
949,677.46,0.00733,18874.00000,829.00000,17743.00000
950,677.90,0.00896,18802.00000,823.00000,17612.00000
951,678.33,0.00789,18545.00000,820.00000,17406.00000
952,678.77,0.00887,18481.00000,814.00000,17310.00000
953,679.20,0.01090,18291.00000,825.00000,17033.00000
954,679.64,0.00884,18109.00000,833.00000,16928.00000
955,680.07,0.01012,18021.00000,825.00000,16800.00000
956,680.51,0.01151,17847.00000,829.00000,16573.00000
957,680.94,0.00975,17752.00000,818.00000,16558.00000
958,681.37,0.01148,17581.00000,829.00000,16315.00000
959,681.81,0.00906,17401.00000,827.00000,16232.00000
960,682.24,0.01061,17285.00000,829.00000,16059.00000
961,682.68,0.00900,17106.00000,823.00000,15949.00000
962,683.11,0.00803,16973.00000,822.00000,15855.00000
963,683.55,0.00717,16835.00000,829.00000,15744.00000
964,683.98,0.01012,16721.00000,827.00000,15528.00000
965,684.42,0.00976,16579.00000,823.00000,15406.00000
966,684.85,0.00886,16415.00000,823.00000,15277.00000
967,685.29,0.00983,16326.00000,823.00000,15156.00000
968,685.72,0.00989,16182.00000,820.00000,15016.00000
969,686.15,0.01150,16136.00000,829.00000,14907.00000
970,686.59,0.00942,15925.00000,820.00000,14781.00000
971,687.02,0.00849,15846.00000,823.00000,14732.00000
972,687.46,0.00961,15722.00000,829.00000,14567.00000
973,687.89,0.00774,15540.00000,829.00000,14451.00000
974,688.33,0.00983,15483.00000,827.00000,14328.00000
975,688.76,0.01026,15383.00000,827.00000,14216.00000
976,689.20,0.00951,15231.00000,833.00000,14086.00000
977,689.63,0.01074,15126.00000,833.00000,13944.00000
978,690.07,0.00826,14942.00000,827.00000,13849.00000
979,690.50,0.00858,14883.00000,827.00000,13781.00000
980,690.94,0.01013,14832.00000,827.00000,13682.00000
981,691.37,0.00782,14712.00000,823.00000,13641.00000
982,691.81,0.01073,14680.00000,827.00000,13515.00000
983,692.24,0.00809,14710.00000,831.00000,13623.00000
984,692.68,0.00990,14794.00000,822.00000,13657.00000
985,693.11,0.00950,14967.00000,825.00000,13836.00000
986,693.55,0.01004,15039.00000,823.00000,13891.00000
987,693.98,0.00830,15145.00000,829.00000,14045.00000
988,694.42,0.00906,15026.00000,839.00000,13894.00000
989,694.85,0.00730,14859.00000,820.00000,13805.00000
990,695.29,0.01049,14663.00000,831.00000,13502.00000
991,695.73,0.01134,14378.00000,831.00000,13198.00000
992,696.16,0.01221,14027.00000,829.00000,12832.00000
993,696.60,0.01142,13663.00000,831.00000,12499.00000
994,697.03,0.00995,13327.00000,829.00000,12215.00000
995,697.47,0.01086,13215.00000,827.00000,12082.00000
996,697.90,0.01261,13063.00000,831.00000,11882.00000
997,698.34,0.00980,12977.00000,831.00000,11875.00000
998,698.77,0.01122,12867.00000,829.00000,11731.00000
999,699.21,0.01041,12692.00000,831.00000,11580.00000
1000,699.64,0.01190,12626.00000,823.00000,11484.00000
1001,700.08,0.01121,12520.00000,823.00000,11399.00000
1002,700.51,0.00865,12391.00000,823.00000,11340.00000
1003,700.95,0.01292,12296.00000,831.00000,11129.00000
1004,701.39,0.01337,12267.00000,820.00000,11100.00000
1005,701.82,0.00638,12074.00000,835.00000,11075.00000
1006,702.26,0.01164,12020.00000,823.00000,10901.00000
1007,702.69,0.00983,11869.00000,837.00000,10785.00000
1008,703.13,0.00897,11793.00000,837.00000,10732.00000
1009,703.56,0.01361,11777.00000,823.00000,10616.00000
1010,704.00,0.01091,11637.00000,831.00000,10538.00000
1011,704.44,0.01411,11533.00000,833.00000,10358.00000
1012,704.87,0.01009,11407.00000,829.00000,10335.00000
1013,705.31,0.01082,11364.00000,835.00000,10270.00000
1014,705.74,0.00983,11234.00000,825.00000,10176.00000
1015,706.18,0.00989,11084.00000,823.00000,10030.00000
1016,706.62,0.01152,10986.00000,827.00000,9893.00000
1017,707.05,0.01041,10876.00000,825.00000,9813.00000
1018,707.49,0.01212,10815.00000,823.00000,9717.00000
1019,707.92,0.01263,10703.00000,831.00000,9589.00000
1020,708.36,0.01066,10598.00000,827.00000,9534.00000
1021,708.80,0.01211,10494.00000,818.00000,9410.00000
1022,709.23,0.00982,10395.00000,822.00000,9359.00000
1023,709.67,0.01325,10314.00000,827.00000,9202.00000
