SpectraSuite Data File
++++++++++++++++++++++++++++++++++++
Date: Mon May 06 15:13:40 CEST 2013
User: User
Dark Spectrum Present: Yes
Reference Spectrum Present: No
Number of Sampled Component Spectra: 1
Spectrometers: QEB1523
Integration Time (usec): 100000 (QEB1523)
Spectra Averaged: 1 (QEB1523)
Boxcar Smoothing: 0 (QEB1523)
Correct for Electrical Dark: No (QEB1523)
Strobe/Lamp Enabled: No (QEB1523)
Correct for Detector Non-linearity: No (QEB1523)
Correct for Stray Light: Yes (QEB1523)
Number of Pixels in Processed Spectrum: 1044
>>>>>Begin Processed Spectral Data<<<<<
199.08	0.0000E00
199.89	0.0000E00
200.70	0.0000E00
201.50	1.3742E02
202.31	1.2488E02
203.11	1.1287E02
203.92	1.1145E02
204.72	1.0900E02
205.53	9.0232E01
206.33	7.3885E01
207.14	9.1199E01
207.94	6.7015E01
208.75	7.6870E01
209.55	6.4515E01
210.36	6.1246E01
211.16	4.9926E01
211.97	5.2593E01
212.77	5.6579E01
213.58	4.3760E01
214.38	3.9033E01
215.19	3.1480E01
215.99	2.7899E01
216.79	2.7800E01
217.60	2.0225E01
218.40	1.9134E01
219.21	2.0795E01
220.01	1.9607E01
220.82	1.6636E01
221.62	1.5557E01
222.42	1.5154E01
223.23	1.1931E01
224.03	9.7179E00
224.83	1.0854E01
225.64	9.2509E00
226.44	7.2060E00
227.24	7.2990E00
228.05	5.6961E00
228.85	5.5433E00
229.65	4.7202E00
230.46	4.6124E00
231.26	4.3100E00
232.06	3.7228E00
232.87	4.4769E00
233.67	4.0696E00
234.47	3.8202E00
235.27	3.5990E00
236.08	3.5031E00
236.88	3.4936E00
237.68	2.9016E00
238.48	2.5422E00
239.29	2.3754E00
240.09	2.0958E00
240.89	1.9754E00
241.69	1.9328E00
242.50	2.1806E00
243.30	2.1951E00
244.10	2.1554E00
244.90	2.7307E00
245.70	2.7368E00
246.50	2.9382E00
247.31	3.5991E00
248.11	3.5065E00
248.91	3.5142E00
249.71	3.6566E00
250.51	3.7083E00
251.31	3.8869E00
252.11	3.6134E00
252.92	3.9192E00
253.72	3.7433E00
254.52	4.1657E00
255.32	4.8466E00
256.12	5.1006E00
256.92	5.3914E00
257.72	6.1999E00
258.52	6.5491E00
259.32	7.0188E00
260.12	7.3675E00
260.92	7.4685E00
261.72	7.2634E00
262.52	7.3672E00
263.32	7.4207E00
264.12	7.3420E00
264.92	7.1914E00
265.72	7.2971E00
266.52	7.3790E00
267.32	7.1798E00
268.12	7.0843E00
268.92	6.9234E00
269.72	6.6899E00
270.52	6.0533E00
271.32	5.7757E00
272.12	5.3300E00
272.92	5.2854E00
273.72	4.9030E00
274.52	4.6237E00
275.32	4.7900E00
276.12	4.5680E00
276.92	4.9181E00
277.72	5.0932E00
278.51	5.4104E00
279.31	5.9519E00
280.11	6.3288E00
280.91	7.1358E00
281.71	7.7048E00
282.51	8.4014E00
283.31	8.9610E00
284.10	9.7693E00
284.90	9.7109E00
285.70	1.0145E01
286.50	1.0415E01
287.30	1.0602E01
288.09	1.0739E01
288.89	1.0439E01
289.69	1.0806E01
290.49	1.1066E01
291.29	1.1535E01
292.08	1.1907E01
292.88	1.2095E01
293.68	1.2462E01
294.48	1.3096E01
295.27	1.3698E01
296.07	1.4371E01
296.87	1.4317E01
297.67	1.4480E01
298.46	1.4293E01
299.26	1.4278E01
300.06	1.3706E01
300.85	1.3307E01
301.65	1.2830E01
302.45	1.2323E01
303.24	1.2040E01
304.04	1.1455E01
304.84	1.1420E01
305.63	1.1074E01
306.43	1.1161E01
307.23	1.0992E01
308.02	1.1311E01
308.82	1.1482E01
309.61	1.1962E01
310.41	1.2570E01
311.21	1.3089E01
312.00	1.3794E01
312.80	1.5008E01
313.59	1.5853E01
314.39	1.7190E01
315.18	1.8200E01
315.98	1.9420E01
316.77	2.0409E01
317.57	2.0992E01
318.37	2.1677E01
319.16	2.2122E01
319.96	2.2074E01
320.75	2.1976E01
321.55	2.1469E01
322.34	2.0986E01
323.14	1.9850E01
323.93	1.8789E01
324.72	1.7935E01
325.52	1.7215E01
326.31	1.6227E01
327.11	1.5972E01
327.90	1.5000E01
328.70	1.4614E01
329.49	1.4166E01
330.29	1.3719E01
331.08	1.3596E01
331.87	1.3318E01
332.67	1.2908E01
333.46	1.3079E01
334.26	1.3130E01
335.05	1.3165E01
335.84	1.3486E01
336.64	1.3626E01
337.43	1.3978E01
338.22	1.4795E01
339.02	1.5142E01
339.81	1.5881E01
340.60	1.6953E01
341.40	1.7623E01
342.19	1.8984E01
342.98	1.9949E01
343.78	2.1336E01
344.57	2.2152E01
345.36	2.3307E01
346.15	2.4366E01
346.95	2.5210E01
347.74	2.5688E01
348.53	2.5768E01
349.32	2.5860E01
350.12	2.5298E01
350.91	2.4224E01
351.70	2.2931E01
352.49	2.1431E01
353.29	1.9930E01
354.08	1.8753E01
354.87	1.7122E01
355.66	1.5646E01
356.45	1.4454E01
357.24	1.3165E01
358.04	1.2374E01
358.83	1.1377E01
359.62	1.0704E01
360.41	1.0134E01
361.20	9.5657E00
361.99	9.1512E00
362.78	8.7761E00
363.58	8.2638E00
364.37	8.0303E00
365.16	7.9072E00
365.95	7.7537E00
366.74	7.6663E00
367.53	7.6522E00
368.32	7.5928E00
369.11	7.5544E00
369.90	7.5652E00
370.69	7.6717E00
371.48	7.7147E00
372.27	7.7656E00
373.06	8.0619E00
373.85	8.2228E00
374.64	8.4382E00
375.43	8.7997E00
376.22	9.2133E00
377.01	9.5414E00
377.80	1.0087E01
378.59	1.0718E01
379.38	1.1216E01
380.17	1.2046E01
380.96	1.2687E01
381.75	1.3437E01
382.54	1.4347E01
383.33	1.5188E01
384.12	1.6220E01
384.91	1.7373E01
385.70	1.8675E01
386.49	1.9973E01
387.27	2.1478E01
388.06	2.3285E01
388.85	2.5078E01
389.64	2.6909E01
390.43	2.8731E01
391.22	3.0755E01
392.01	3.2763E01
392.80	3.4555E01
393.58	3.6259E01
394.37	3.8220E01
395.16	3.9482E01
395.95	4.1043E01
396.74	4.1842E01
397.52	4.1967E01
398.31	4.1521E01
399.10	4.0599E01
399.89	4.0109E01
400.68	3.8895E01
401.46	3.8593E01
402.25	3.7829E01
403.04	3.7074E01
403.83	3.6423E01
404.61	3.6037E01
405.40	3.5774E01
406.19	3.5556E01
406.97	3.5111E01
407.76	3.5078E01
408.55	3.5080E01
409.33	3.4958E01
410.12	3.4753E01
410.91	3.4698E01
411.69	3.4765E01
412.48	3.5095E01
413.27	3.4881E01
414.05	3.4600E01
414.84	3.4428E01
415.63	3.4360E01
416.41	3.4699E01
417.20	3.4769E01
417.99	3.5136E01
418.77	3.6223E01
419.56	3.7173E01
420.34	3.7117E01
421.13	3.6463E01
421.91	3.6295E01
422.70	3.6278E01
423.49	3.6223E01
424.27	3.6517E01
425.06	3.6557E01
425.84	3.6564E01
426.63	3.6604E01
427.41	3.6935E01
428.20	3.6913E01
428.98	3.6935E01
429.77	3.7084E01
430.55	3.7120E01
431.34	3.7374E01
432.12	3.7578E01
432.91	3.7636E01
433.69	3.7740E01
434.48	3.8092E01
435.26	3.8501E01
436.04	3.8817E01
436.83	3.9179E01
437.61	3.9854E01
438.40	4.0513E01
439.18	4.0564E01
439.96	3.9723E01
440.75	3.9642E01
441.53	3.9795E01
442.32	3.9813E01
443.10	3.9930E01
443.88	3.9911E01
444.67	3.9912E01
445.45	4.0055E01
446.23	3.9975E01
447.02	4.0220E01
447.80	4.0856E01
448.58	4.2138E01
449.37	4.4798E01
450.15	5.0460E01
450.93	4.8376E01
451.72	4.5063E01
452.50	4.6617E01
453.28	4.5029E01
454.06	4.2942E01
454.85	4.2976E01
455.63	4.3505E01
456.41	4.4229E01
457.19	4.5857E01
457.98	4.6907E01
458.76	4.7218E01
459.54	4.5937E01
460.32	4.6060E01
461.10	4.7768E01
461.89	5.0993E01
462.67	5.4284E01
463.45	5.4234E01
464.23	5.0882E01
465.01	4.9146E01
465.79	5.0789E01
466.57	5.5737E01
467.36	6.5956E01
468.14	6.8783E01
468.92	6.1571E01
469.70	5.5821E01
470.48	5.2490E01
471.26	4.9363E01
472.04	4.8174E01
472.82	5.0982E01
473.60	5.7116E01
474.38	5.0671E01
475.17	4.4845E01
475.95	4.3095E01
476.73	4.2413E01
477.51	4.1996E01
478.29	4.2166E01
479.07	4.3157E01
479.85	4.5105E01
480.63	4.8797E01
481.41	5.1867E01
482.19	5.0219E01
482.97	5.0222E01
483.75	4.9867E01
484.53	4.7956E01
485.31	4.6544E01
486.09	4.5035E01
486.87	4.4310E01
487.64	4.4152E01
488.42	4.4308E01
489.20	4.4866E01
489.98	4.5279E01
490.76	4.6979E01
491.54	5.1328E01
492.32	5.5375E01
493.10	5.4207E01
493.88	5.0829E01
494.66	4.8576E01
495.43	4.7195E01
496.21	4.6821E01
496.99	4.6711E01
497.77	4.6691E01
498.55	4.6846E01
499.33	4.6980E01
500.10	4.7154E01
500.88	4.7398E01
501.66	4.7968E01
502.44	4.8450E01
503.22	4.9237E01
503.99	4.9209E01
504.77	4.9275E01
505.55	4.9041E01
506.33	4.9200E01
507.10	4.9544E01
507.88	4.9682E01
508.66	4.9832E01
509.44	5.0081E01
510.21	5.0085E01
510.99	5.0567E01
511.77	5.0776E01
512.55	5.1302E01
513.32	5.1617E01
514.10	5.1787E01
514.88	5.1824E01
515.65	5.1894E01
516.43	5.2035E01
517.21	5.2120E01
517.98	5.2380E01
518.76	5.2668E01
519.53	5.2686E01
520.31	5.2662E01
521.09	5.2783E01
521.86	5.2921E01
522.64	5.3069E01
523.41	5.3213E01
524.19	5.3394E01
524.97	5.3220E01
525.74	5.3170E01
526.52	5.3260E01
527.29	5.3557E01
528.07	5.3601E01
528.84	5.3996E01
529.62	5.4160E01
530.39	5.3833E01
531.17	5.3970E01
531.94	5.3924E01
532.72	5.3953E01
533.49	5.4118E01
534.27	5.4304E01
535.04	5.4335E01
535.82	5.4361E01
536.59	5.4459E01
537.37	5.4543E01
538.14	5.4375E01
538.92	5.4459E01
539.69	5.4683E01
540.47	5.5069E01
541.24	5.5141E01
542.01	5.5358E01
542.79	5.5394E01
543.56	5.5441E01
544.34	5.5332E01
545.11	5.5520E01
545.88	5.5609E01
546.66	5.5602E01
547.43	5.5747E01
548.20	5.5415E01
548.98	5.5506E01
549.75	5.5456E01
550.52	5.5437E01
551.30	5.5402E01
552.07	5.5726E01
552.84	5.5681E01
553.62	5.5765E01
554.39	5.5658E01
555.16	5.5572E01
555.93	5.5662E01
556.71	5.5732E01
557.48	5.5605E01
558.25	5.5561E01
559.02	5.5532E01
559.80	5.5476E01
560.57	5.5483E01
561.34	5.5529E01
562.11	5.5407E01
562.88	5.5462E01
563.66	5.5400E01
564.43	5.5274E01
565.20	5.5099E01
565.97	5.5281E01
566.74	5.5236E01
567.51	5.5371E01
568.29	5.5465E01
569.06	5.5612E01
569.83	5.5954E01
570.60	5.5928E01
571.37	5.5617E01
572.14	5.5728E01
572.91	5.5551E01
573.68	5.5687E01
574.45	5.5777E01
575.23	5.5704E01
576.00	5.5582E01
576.77	5.5848E01
577.54	5.5609E01
578.31	5.5801E01
579.08	5.5755E01
579.85	5.5914E01
580.62	5.5860E01
581.39	5.5838E01
582.16	5.6161E01
582.93	5.6279E01
583.70	5.6705E01
584.47	5.6668E01
585.24	5.6527E01
586.01	5.6743E01
586.78	5.6701E01
587.55	5.6661E01
588.32	5.6672E01
589.09	5.6694E01
589.86	5.6579E01
590.62	5.6557E01
591.39	5.6235E01
592.16	5.6050E01
592.93	5.5762E01
593.70	5.5501E01
594.47	5.5329E01
595.24	5.5052E01
596.01	5.4634E01
596.78	5.4444E01
597.54	5.4311E01
598.31	5.3930E01
599.08	5.3917E01
599.85	5.3615E01
600.62	5.3607E01
601.39	5.3603E01
602.15	5.3373E01
602.92	5.3110E01
603.69	5.3144E01
604.46	5.3075E01
605.22	5.2932E01
605.99	5.2992E01
606.76	5.2893E01
607.53	5.2889E01
608.29	5.2792E01
609.06	5.3100E01
609.83	5.3315E01
610.60	5.3472E01
611.36	5.3598E01
612.13	5.3942E01
612.90	5.4121E01
613.66	5.4331E01
614.43	5.4689E01
615.20	5.4975E01
615.96	5.5115E01
616.73	5.5223E01
617.50	5.5530E01
618.26	5.6088E01
619.03	5.6545E01
619.80	5.6672E01
620.56	5.6550E01
621.33	5.6592E01
622.10	5.6170E01
622.86	5.5840E01
623.63	5.5332E01
624.39	5.4821E01
625.16	5.4355E01
625.92	5.4072E01
626.69	5.3803E01
627.45	5.3597E01
628.22	5.3444E01
628.99	5.3303E01
629.75	5.3598E01
630.52	5.3550E01
631.28	5.3639E01
632.05	5.3688E01
632.81	5.3769E01
633.58	5.3428E01
634.34	5.2759E01
635.11	5.2634E01
635.87	5.2039E01
636.63	5.1643E01
637.40	5.1380E01
638.16	5.1029E01
638.93	5.0716E01
639.69	5.0567E01
640.46	5.0499E01
641.22	5.0310E01
641.98	5.0261E01
642.75	5.0235E01
643.51	5.0335E01
644.28	5.0463E01
645.04	5.0789E01
645.80	5.1464E01
646.57	5.2210E01
647.33	5.3533E01
648.09	5.4497E01
648.86	5.4502E01
649.62	5.4145E01
650.38	5.3461E01
651.15	5.2266E01
651.91	5.0957E01
652.67	5.0164E01
653.43	4.9681E01
654.20	4.9403E01
654.96	4.9181E01
655.72	4.9001E01
656.48	4.8871E01
657.25	4.8856E01
658.01	4.8577E01
658.77	4.8583E01
659.53	4.8637E01
660.30	4.8749E01
661.06	4.8867E01
661.82	4.8939E01
662.58	4.8985E01
663.34	4.8981E01
664.11	4.9390E01
664.87	4.9910E01
665.63	5.0120E01
666.39	5.0449E01
667.15	5.0900E01
667.91	5.1040E01
668.67	5.0913E01
669.43	5.0796E01
670.20	5.0418E01
670.96	5.0670E01
671.72	5.0620E01
672.48	5.0745E01
673.24	5.1009E01
674.00	5.1274E01
674.76	5.1229E01
675.52	5.1065E01
676.28	5.0601E01
677.04	5.0132E01
677.80	4.9751E01
678.56	4.9595E01
679.32	4.9466E01
680.08	4.9504E01
680.84	5.0035E01
681.60	5.1176E01
682.36	5.4380E01
683.12	5.9300E01
683.88	5.9112E01
684.64	5.6936E01
685.40	5.5986E01
686.16	5.5954E01
686.92	5.6545E01
687.68	5.8088E01
688.44	5.9812E01
689.20	6.0673E01
689.96	5.9377E01
690.71	5.7227E01
691.47	5.4648E01
692.23	5.2266E01
692.99	5.0737E01
693.75	4.9278E01
694.51	4.8076E01
695.27	4.7078E01
696.02	4.6535E01
696.78	4.6165E01
697.54	4.6025E01
698.30	4.6229E01
699.06	4.6036E01
699.82	4.5442E01
700.57	4.4749E01
701.33	4.4205E01
702.09	4.3576E01
702.85	4.3043E01
703.60	4.2739E01
704.36	4.2410E01
705.12	4.2554E01
705.88	4.2760E01
706.63	4.3220E01
707.39	4.3796E01
708.15	4.5073E01
708.90	4.6356E01
709.66	4.8002E01
710.42	5.0357E01
711.18	5.2824E01
711.93	5.5273E01
712.69	5.6224E01
713.44	5.5398E01
714.20	5.3311E01
714.96	5.1036E01
715.71	4.9059E01
716.47	4.7266E01
717.23	4.5817E01
717.98	4.4786E01
718.74	4.3930E01
719.49	4.3142E01
720.25	4.2307E01
721.01	4.1264E01
721.76	4.0795E01
722.52	4.0597E01
723.27	4.0444E01
724.03	4.0619E01
724.78	4.0921E01
725.54	4.1674E01
726.29	4.2558E01
727.05	4.3631E01
727.80	4.5779E01
728.56	4.7882E01
729.31	4.8180E01
730.07	4.7497E01
730.82	4.7971E01
731.58	5.0832E01
732.33	5.4099E01
733.09	5.4182E01
733.84	5.3809E01
734.60	5.0654E01
735.35	4.6534E01
736.10	4.4291E01
736.86	4.3540E01
737.61	4.3947E01
738.37	4.4923E01
739.12	4.6852E01
739.87	4.9076E01
740.63	5.0315E01
741.38	4.9864E01
742.13	4.8449E01
742.89	4.6742E01
743.64	4.5130E01
744.39	4.3775E01
745.15	4.2445E01
745.90	4.1682E01
746.65	4.1360E01
747.41	4.1192E01
748.16	4.1517E01
748.91	4.2775E01
749.66	4.4328E01
750.42	4.4308E01
751.17	4.3782E01
751.92	4.3104E01
752.67	4.3097E01
753.43	4.3254E01
754.18	4.3212E01
754.93	4.2294E01
755.68	4.2145E01
756.43	4.1989E01
757.19	4.2201E01
757.94	4.2805E01
758.69	4.3908E01
759.44	4.5031E01
760.19	4.6437E01
760.94	4.7780E01
761.70	4.8900E01
762.45	5.0392E01
763.20	5.8392E01
763.95	8.8026E01
764.70	1.1241E02
765.45	8.4931E01
766.20	6.2608E01
766.95	5.1538E01
767.70	4.5750E01
768.45	4.2285E01
769.20	4.0200E01
769.95	3.8453E01
770.71	3.7226E01
771.46	3.6281E01
772.21	3.5128E01
772.96	3.4634E01
773.71	3.3839E01
774.46	3.3013E01
775.21	3.2223E01
775.96	3.1688E01
776.71	3.1050E01
777.46	3.0786E01
778.20	3.0629E01
778.95	3.0498E01
779.70	3.0318E01
780.45	3.0674E01
781.20	3.1474E01
781.95	3.1727E01
782.70	3.1539E01
783.45	3.1169E01
784.20	3.0709E01
784.95	3.0203E01
785.70	2.9925E01
786.44	3.0080E01
787.19	3.0704E01
787.94	3.2568E01
788.69	3.8666E01
789.44	4.4857E01
790.19	4.2895E01
790.94	3.8009E01
791.68	3.4659E01
792.43	3.2365E01
793.18	3.0928E01
793.93	3.0369E01
794.68	3.0585E01
795.42	3.1572E01
796.17	3.3811E01
796.92	3.7587E01
797.67	3.8617E01
798.41	3.7108E01
799.16	3.5205E01
799.91	3.3699E01
800.65	3.2358E01
801.40	3.1164E01
802.15	3.0342E01
802.90	2.9518E01
803.64	2.9028E01
804.39	2.8708E01
805.14	2.8616E01
805.88	2.9104E01
806.63	3.0410E01
807.37	3.1085E01
808.12	3.1442E01
808.87	3.1165E01
809.61	3.0563E01
810.36	2.9681E01
811.11	2.9175E01
811.85	2.8884E01
812.60	2.8525E01
813.34	2.8262E01
814.09	2.7979E01
814.83	2.7940E01
815.58	2.8668E01
816.33	2.9681E01
817.07	3.1653E01
817.82	3.3626E01
818.56	3.5853E01
819.31	3.9818E01
820.05	4.8245E01
820.80	6.4466E01
821.54	8.6926E01
822.29	1.4365E02
823.03	2.7246E02
823.77	3.0102E02
824.52	2.1152E02
825.26	1.3865E02
826.01	1.0534E02
826.75	1.0751E02
827.50	1.4434E02
828.24	1.8066E02
828.98	1.2371E02
829.73	7.4382E01
830.47	5.1885E01
831.22	4.2445E01
831.96	3.8931E01
832.70	4.0251E01
833.45	5.1505E01
834.19	8.6613E01
834.93	1.1116E02
835.68	7.8991E01
836.42	5.0981E01
837.16	3.7770E01
837.91	3.0676E01
838.65	2.6735E01
839.39	2.5733E01
840.14	3.0755E01
840.88	5.0643E01
841.62	4.5456E01
842.36	2.9521E01
843.11	2.2348E01
843.85	1.8978E01
844.59	1.7045E01
845.33	1.5826E01
846.07	1.4979E01
846.82	1.4255E01
847.56	1.3770E01
848.30	1.3422E01
849.04	1.3157E01
849.78	1.3121E01
850.53	1.2916E01
851.27	1.2862E01
852.01	1.2872E01
852.75	1.2889E01
853.49	1.3094E01
854.23	1.2961E01
854.97	1.3135E01
855.71	1.3111E01
856.46	1.3065E01
857.20	1.3274E01
857.94	1.3663E01
858.68	1.3962E01
859.42	1.3867E01
860.16	1.3835E01
860.90	1.3756E01
861.64	1.3493E01
862.38	1.3682E01
863.12	1.4128E01
863.86	1.4836E01
864.60	1.5842E01
865.34	1.6545E01
866.08	1.6874E01
866.82	1.6939E01
867.56	1.7100E01
868.30	1.7326E01
869.04	1.7838E01
869.78	1.8204E01
870.52	1.9011E01
871.26	1.9726E01
872.00	2.0336E01
872.74	2.1408E01
873.47	2.2788E01
874.21	2.3653E01
874.95	2.4210E01
875.69	2.5212E01
876.43	2.6011E01
877.17	2.7509E01
877.91	2.9835E01
878.65	3.4184E01
879.38	4.1870E01
880.12	5.7411E01
880.86	9.3428E01
881.60	1.4515E02
882.34	1.6437E02
883.07	1.4556E02
883.81	1.1100E02
884.55	8.2398E01
885.29	6.3650E01
886.03	5.3159E01
886.76	4.6506E01
887.50	4.1053E01
888.24	3.6364E01
888.97	3.3135E01
889.71	3.1398E01
890.45	3.1428E01
891.19	3.2054E01
891.92	3.2181E01
892.66	3.4813E01
893.40	4.1632E01
894.13	5.4816E01
894.87	8.4422E01
895.61	9.5406E01
896.34	7.2624E01
897.08	5.2381E01
897.82	4.2253E01
898.55	3.7642E01
899.29	3.4154E01
900.02	3.1243E01
900.76	2.9095E01
901.50	2.7641E01
902.23	2.8885E01
902.97	3.4438E01
903.70	5.3932E01
904.44	9.4405E01
905.17	9.1512E01
905.91	6.0670E01
906.64	4.0818E01
907.38	3.0795E01
908.11	2.5628E01
908.85	2.3093E01
909.58	2.1763E01
910.32	2.1368E01
911.05	2.1879E01
911.79	2.2943E01
912.52	2.5280E01
913.26	2.9052E01
913.99	3.6884E01
914.73	5.2598E01
915.46	8.3563E01
916.20	1.1631E02
916.93	1.0912E02
917.66	8.2590E01
918.40	6.1121E01
919.13	4.7541E01
919.87	3.9837E01
920.60	3.5716E01
921.33	3.2759E01
922.07	2.9611E01
922.80	2.6647E01
923.53	2.4251E01
924.27	2.2254E01
925.00	2.0824E01
925.73	1.9534E01
926.47	1.8395E01
927.20	1.7889E01
927.93	1.7519E01
928.66	1.7511E01
929.40	1.7990E01
930.13	1.9183E01
930.86	1.9934E01
931.59	2.0007E01
932.33	1.9954E01
933.06	1.9955E01
933.79	2.0677E01
934.52	2.1903E01
935.25	2.4053E01
935.99	2.6830E01
936.72	3.2171E01
937.45	3.9905E01
938.18	4.4366E01
938.91	4.2723E01
939.64	3.9774E01
940.38	3.7244E01
941.11	3.5201E01
941.84	3.3553E01
942.57	3.1280E01
943.30	3.0854E01
944.03	3.1572E01
944.76	3.4346E01
945.49	3.5043E01
946.22	3.5258E01
946.95	3.4585E01
947.69	3.4221E01
948.42	3.4525E01
949.15	3.6795E01
949.88	4.0639E01
950.61	4.4362E01
951.34	4.5458E01
952.07	4.2168E01
952.80	3.7633E01
953.53	3.2920E01
954.26	2.8514E01
954.99	2.5503E01
955.72	2.3188E01
956.45	2.1161E01
957.17	1.9769E01
957.90	1.9286E01
958.63	1.8326E01
959.36	1.7591E01
960.09	1.7014E01
960.82	1.6866E01
961.55	1.6930E01
962.28	1.6746E01
963.01	1.6707E01
963.74	1.7131E01
964.46	1.7597E01
965.19	1.7948E01
965.92	1.9121E01
966.65	2.0833E01
967.38	2.2838E01
968.11	2.5567E01
968.83	2.7600E01
969.56	2.8252E01
970.29	2.8551E01
971.02	2.9160E01
971.75	2.9679E01
972.47	2.9544E01
973.20	2.8925E01
973.93	2.8230E01
974.66	2.8338E01
975.38	2.9189E01
976.11	3.1252E01
976.84	3.5193E01
977.56	4.2058E01
978.29	5.5529E01
979.02	7.9068E01
979.74	1.0018E02
980.47	9.2471E01
981.20	0.0000E00
981.92	0.0000E00
982.65	0.0000E00
983.38	0.0000E00
984.10	0.0000E00
984.83	-0.0000E00
985.56	0.0000E00
986.28	-0.0000E00
987.01	-0.0000E00
987.73	0.0000E00
988.46	0.0000E00
989.19	0.0000E00
989.91	0.0000E00
990.64	0.0000E00
991.36	0.0000E00
992.09	0.0000E00
992.81	0.0000E00
993.54	0.0000E00
994.26	0.0000E00
994.99	0.0000E00
995.71	0.0000E00
996.44	0.0000E00
997.16	0.0000E00
997.89	0.0000E00
998.61	0.0000E00
>>>>>End Processed Spectral Data<<<<<
